WSM
F3OF
DT3
FLAP1
t(s)	FLAP1(deg)
0.00000	10.00000
0.10000	9.97756
0.20000	9.91277
0.30000	9.80812
0.40000	9.66790
0.50000	9.49686
0.60000	9.30033
0.70000	9.08361
0.80000	8.85164
0.90000	8.60871
1.00000	8.35825
1.10000	8.10274
1.20000	7.84370
1.30000	7.58174
1.40000	7.31674
1.50000	7.04799
1.60000	6.77437
1.70000	6.49464
1.80000	6.20751
1.90000	5.91194
2.00000	5.60712
2.10000	5.29264
2.20000	4.96846
2.30000	4.63493
2.40000	4.29271
2.50000	3.94270
2.60000	3.58594
2.70000	3.22356
2.80000	2.85662
2.90000	2.48606
3.00000	2.11268
3.10000	1.73701
3.20000	1.35939
3.30000	0.97991
3.40000	0.59847
3.50000	0.21487
3.60000	-0.17115
3.70000	-0.55981
3.80000	-0.95124
3.90000	-1.34532
4.00000	-1.74171
4.10000	-2.13977
4.20000	-2.53852
4.30000	-2.93670
4.40000	-3.33275
4.50000	-3.72493
4.60000	-4.11134
4.70000	-4.49003
4.80000	-4.85910
4.90000	-5.21675
5.00000	-5.56142
5.10000	-5.89176
5.20000	-6.20675
5.30000	-6.50567
5.40000	-6.78812
5.50000	-7.05398
5.60000	-7.30339
5.70000	-7.53665
5.80000	-7.75420
5.90000	-7.95655
6.00000	-8.14417
6.10000	-8.31747
6.20000	-8.47674
6.30000	-8.62209
6.40000	-8.75347
6.50000	-8.87064
6.60000	-8.97320
6.70000	-9.06060
6.80000	-9.13219
6.90000	-9.18728
7.00000	-9.22518
7.10000	-9.24525
7.20000	-9.24694
7.30000	-9.22985
7.40000	-9.19372
7.50000	-9.13848
7.60000	-9.06423
7.70000	-8.97120
7.80000	-8.85980
7.90000	-8.73051
8.00000	-8.58392
8.10000	-8.42064
8.20000	-8.24131
8.30000	-8.04654
8.40000	-7.83691
8.50000	-7.61297
8.60000	-7.37521
8.70000	-7.12407
8.80000	-6.85996
8.90000	-6.58326
9.00000	-6.29435
9.10000	-5.99363
9.20000	-5.68152
9.30000	-5.35851
9.40000	-5.02510
9.50000	-4.68188
9.60000	-4.32948
9.70000	-3.96859
9.80000	-3.59992
9.90000	-3.22418
10.00000	-2.84211
10.10000	-2.45441
10.20000	-2.06176
10.30000	-1.66479
10.40000	-1.26409
10.50000	-0.86023
10.60000	-0.45371
10.70000	-0.04505
10.80000	0.36523
10.90000	0.77662
11.00000	1.18852
11.10000	1.60028
11.20000	2.01120
11.30000	2.42043
11.40000	2.82708
11.50000	3.23012
11.60000	3.62846
11.70000	4.02092
11.80000	4.40628
11.90000	4.78330
12.00000	5.15073
12.10000	5.50734
12.20000	5.85199
12.30000	6.18359
12.40000	6.50116
12.50000	6.80386
12.60000	7.09094
12.70000	7.36180
12.80000	7.61596
12.90000	7.85306
13.00000	8.07282
13.10000	8.27507
13.20000	8.45971
13.30000	8.62668
13.40000	8.77596
13.50000	8.90757
13.60000	9.02153
13.70000	9.11789
13.80000	9.19670
13.90000	9.25801
14.00000	9.30189
14.10000	9.32844
14.20000	9.33775
14.30000	9.32995
14.40000	9.30518
14.50000	9.26362
14.60000	9.20545
14.70000	9.13089
14.80000	9.04014
14.90000	8.93344
15.00000	8.81101
15.10000	8.67305
15.20000	8.51977
15.30000	8.35134
15.40000	8.16793
15.50000	7.96968
15.60000	7.75672
15.70000	7.52918
15.80000	7.28720
15.90000	7.03094
16.00000	6.76059
16.10000	6.47640
16.20000	6.17869
16.30000	5.86782
16.40000	5.54427
16.50000	5.20859
16.60000	4.86139
16.70000	4.50340
16.80000	4.13539
16.90000	3.75822
17.00000	3.37278
17.10000	2.97999
17.20000	2.58080
17.30000	2.17618
17.40000	1.76706
17.50000	1.35438
17.60000	0.93907
17.70000	0.52199
17.80000	0.10402
17.90000	-0.31401
18.00000	-0.73128
18.10000	-1.14702
18.20000	-1.56042
18.30000	-1.97071
18.40000	-2.37713
18.50000	-2.77889
18.60000	-3.17521
18.70000	-3.56532
18.80000	-3.94844
18.90000	-4.32379
19.00000	-4.69063
19.10000	-5.04820
19.20000	-5.39580
19.30000	-5.73275
19.40000	-6.05841
19.50000	-6.37216
19.60000	-6.67346
19.70000	-6.96177
19.80000	-7.23662
19.90000	-7.49757
20.00000	-7.74418
20.10000	-7.97606
20.20000	-8.19284
20.30000	-8.39413
20.40000	-8.57958
20.50000	-8.74883
20.60000	-8.90152
20.70000	-9.03732
20.80000	-9.15587
20.90000	-9.25686
21.00000	-9.34000
21.10000	-9.40501
21.20000	-9.45167
21.30000	-9.47980
21.40000	-9.48926
21.50000	-9.47999
21.60000	-9.45197
21.70000	-9.40525
21.80000	-9.33995
21.90000	-9.25623
22.00000	-9.15430
22.10000	-9.03444
22.20000	-8.89695
22.30000	-8.74215
22.40000	-8.57041
22.50000	-8.38211
22.60000	-8.17764
22.70000	-7.95742
22.80000	-7.72187
22.90000	-7.47141
23.00000	-7.20652
23.10000	-6.92764
23.20000	-6.63529
23.30000	-6.32997
23.40000	-6.01224
23.50000	-5.68268
23.60000	-5.34190
23.70000	-4.99055
23.80000	-4.62931
23.90000	-4.25890
24.00000	-3.88006
24.10000	-3.49356
24.20000	-3.10018
24.30000	-2.70072
24.40000	-2.29599
24.50000	-1.88680
24.60000	-1.47398
24.70000	-1.05833
24.80000	-0.64068
24.90000	-0.22182
25.00000	0.19744
25.10000	0.61628
25.20000	1.03392
25.30000	1.44956
25.40000	1.86238
25.50000	2.27161
25.60000	2.67645
25.70000	3.07612
25.80000	3.46982
25.90000	3.85680
26.00000	4.23631
26.10000	4.60760
26.20000	4.96998
26.30000	5.32276
26.40000	5.66529
26.50000	5.99694
26.60000	6.31713
26.70000	6.62528
26.80000	6.92088
26.90000	7.20342
27.00000	7.47240
27.10000	7.72738
27.20000	7.96789
27.30000	8.19351
27.40000	8.40381
27.50000	8.59836
27.60000	8.77675
27.70000	8.93859
27.80000	9.08347
27.90000	9.21104
28.00000	9.32092
28.10000	9.41280
28.20000	9.48638
28.30000	9.54140
28.40000	9.57765
28.50000	9.59496
28.60000	9.59323
28.70000	9.57239
28.80000	9.53246
28.90000	9.47348
29.00000	9.39558
29.10000	9.29890
29.20000	9.18368
29.30000	9.05018
29.40000	8.89869
29.50000	8.72958
29.60000	8.54321
29.70000	8.34001
29.80000	8.12043
29.90000	7.88494
30.00000	7.63406
30.10000	7.36831
30.20000	7.08826
30.30000	6.79450
30.40000	6.48764
30.50000	6.16833
30.60000	5.83721
30.70000	5.49498
30.80000	5.14233
30.90000	4.77998
31.00000	4.40865
31.10000	4.02908
31.20000	3.64202
31.30000	3.24819
31.40000	2.84835
31.50000	2.44323
31.60000	2.03356
31.70000	1.62007
31.80000	1.20350
31.90000	0.78458
32.00000	0.36402
32.10000	-0.05743
32.20000	-0.47903
32.30000	-0.90005
32.40000	-1.31971
32.50000	-1.73726
32.60000	-2.15191
32.70000	-2.56287
32.80000	-2.96934
32.90000	-3.37052
33.00000	-3.76558
33.10000	-4.15374
33.20000	-4.53418
33.30000	-4.90612
33.40000	-5.26878
33.50000	-5.62140
33.60000	-5.96327
33.70000	-6.29368
33.80000	-6.61196
33.90000	-6.91747
34.00000	-7.20961
34.10000	-7.48780
34.20000	-7.75149
34.30000	-8.00018
34.40000	-8.23337
34.50000	-8.45063
34.60000	-8.65151
34.70000	-8.83562
34.80000	-9.00260
34.90000	-9.15210
35.00000	-9.28381
35.10000	-9.39746
35.20000	-9.49280
35.30000	-9.56963
35.40000	-9.62778
35.50000	-9.66712
35.60000	-9.68757
35.70000	-9.68908
35.80000	-9.67165
35.90000	-9.63530
36.00000	-9.58013
36.10000	-9.50625
36.20000	-9.41382
36.30000	-9.30302
36.40000	-9.17408
36.50000	-9.02727
36.60000	-8.86288
36.70000	-8.68122
36.80000	-8.48266
36.90000	-8.26757
37.00000	-8.03638
37.10000	-7.78953
37.20000	-7.52750
37.30000	-7.25080
37.40000	-6.95997
37.50000	-6.65558
37.60000	-6.33824
37.70000	-6.00858
37.80000	-5.66726
37.90000	-5.31496
38.00000	-4.95239
38.10000	-4.58026
38.20000	-4.19933
38.30000	-3.81034
38.40000	-3.41404
38.50000	-3.01122
38.60000	-2.60265
38.70000	-2.18909
38.80000	-1.77134
38.90000	-1.35016
39.00000	-0.92635
39.10000	-0.50068
39.20000	-0.07394
39.30000	0.35308
39.40000	0.77960
39.50000	1.20482
39.60000	1.62794
39.70000	2.04817
39.80000	2.46471
39.90000	2.87676
40.00000	3.28353
40.10000	3.68423
40.20000	4.07806
40.30000	4.46427
40.40000	4.84208
40.50000	5.21076
40.60000	5.56956
40.70000	5.91780
40.80000	6.25476
40.90000	6.57980
41.00000	6.89226
41.10000	7.19151
41.20000	7.47697
41.30000	7.74806
41.40000	8.00423
41.50000	8.24496
41.60000	8.46975
41.70000	8.67814
41.80000	8.86968
41.90000	9.04397
42.00000	9.20065
42.10000	9.33938
42.20000	9.45986
42.30000	9.56184
42.40000	9.64511
42.50000	9.70950
42.60000	9.75488
42.70000	9.78118
42.80000	9.78836
42.90000	9.77642
43.00000	9.74542
43.10000	9.69544
43.20000	9.62660
43.30000	9.53907
43.40000	9.43303
43.50000	9.30871
43.60000	9.16635
43.70000	9.00625
43.80000	8.82869
43.90000	8.63403
44.00000	8.42261
44.10000	8.19483
44.20000	7.95111
44.30000	7.69190
44.40000	7.41767
44.50000	7.12894
44.60000	6.82625
44.70000	6.51016
44.80000	6.18130
44.90000	5.84028
45.00000	5.48777
45.10000	5.12445
45.20000	4.75106
45.30000	4.36830
45.40000	3.97695
45.50000	3.57778
45.60000	3.17157
45.70000	2.75911
45.80000	2.34123
45.90000	1.91874
46.00000	1.49247
46.10000	1.06324
46.20000	0.63189
46.30000	0.19927
46.40000	-0.23380
46.50000	-0.66646
46.60000	-1.09788
46.70000	-1.52723
46.80000	-1.95367
46.90000	-2.37637
47.00000	-2.79452
47.10000	-3.20731
47.20000	-3.61396
47.30000	-4.01368
47.40000	-4.40570
47.50000	-4.78930
47.60000	-5.16373
47.70000	-5.52830
47.80000	-5.88233
47.90000	-6.22515
48.00000	-6.55612
48.10000	-6.87462
48.20000	-7.18005
48.30000	-7.47183
48.40000	-7.74939
48.50000	-8.01220
48.60000	-8.25974
48.70000	-8.49151
48.80000	-8.70702
48.90000	-8.90584
49.00000	-9.08753
49.10000	-9.25168
49.20000	-9.39795
49.30000	-9.52599
49.40000	-9.63550
49.50000	-9.72622
49.60000	-9.79794
49.70000	-9.85048
49.80000	-9.88370
49.90000	-9.89751
50.00000	-9.89187
50.10000	-9.86678
50.20000	-9.82227
50.30000	-9.75845
50.40000	-9.67543
50.50000	-9.57340
50.60000	-9.45255
50.70000	-9.31316
50.80000	-9.15550
50.90000	-8.97990
51.00000	-8.78674
51.10000	-8.57641
51.20000	-8.34934
51.30000	-8.10601
51.40000	-7.84691
51.50000	-7.57258
51.60000	-7.28357
51.70000	-6.98047
51.80000	-6.66390
51.90000	-6.33449
52.00000	-5.99290
52.10000	-5.63980
52.20000	-5.27589
52.30000	-4.90187
52.40000	-4.51848
52.50000	-4.12645
52.60000	-3.72651
52.70000	-3.31942
52.80000	-2.90595
52.90000	-2.48687
53.00000	-2.06295
53.10000	-1.63499
53.20000	-1.20377
53.30000	-0.77010
53.40000	-0.33478
53.50000	0.10136
53.60000	0.53751
53.70000	0.97285
53.80000	1.40654
53.90000	1.83776
54.00000	2.26567
54.10000	2.68945
54.20000	3.10828
54.30000	3.52135
54.40000	3.92785
54.50000	4.32698
54.60000	4.71798
54.70000	5.10007
54.80000	5.47251
54.90000	5.83457
55.00000	6.18555
55.10000	6.52476
55.20000	6.85154
55.30000	7.16523
55.40000	7.46522
55.50000	7.75090
55.60000	8.02171
55.70000	8.27708
55.80000	8.51650
55.90000	8.73948
56.00000	8.94554
56.10000	9.13424
56.20000	9.30520
56.30000	9.45804
56.40000	9.59242
56.50000	9.70807
56.60000	9.80473
56.70000	9.88219
56.80000	9.94028
56.90000	9.97888
57.00000	9.99790
57.10000	9.99732
57.20000	9.97713
57.30000	9.93737
57.40000	9.87814
57.50000	9.79956
57.60000	9.70179
57.70000	9.58505
57.80000	9.44956
57.90000	9.29561
58.00000	9.12352
58.10000	8.93364
58.20000	8.72634
58.30000	8.50206
58.40000	8.26124
58.50000	8.00438
58.60000	7.73198
58.70000	7.44461
58.80000	7.14282
58.90000	6.82723
59.00000	6.49847
59.10000	6.15717
59.20000	5.80402
59.30000	5.43971
59.40000	5.06492
59.50000	4.68040
59.60000	4.28687
59.70000	3.88508
59.80000	3.47579
59.90000	3.05975
60.00000	2.63775
60.10000	2.21058
60.20000	1.77902
60.30000	1.34387
60.40000	0.90595
60.50000	0.46606
60.60000	0.02504
60.70000	-0.41629
60.80000	-0.85710
60.90000	-1.29655
61.00000	-1.73380
61.10000	-2.16801
61.20000	-2.59834
61.30000	-3.02396
61.40000	-3.44403
61.50000	-3.85774
61.60000	-4.26425
61.70000	-4.66278
61.80000	-5.05253
61.90000	-5.43271
62.00000	-5.80258
62.10000	-6.16138
62.20000	-6.50839
62.30000	-6.84291
62.40000	-7.16426
62.50000	-7.47179
62.60000	-7.76486
62.70000	-8.04287
62.80000	-8.30525
62.90000	-8.55146
63.00000	-8.78099
63.10000	-8.99337
63.20000	-9.18817
63.30000	-9.36498
63.40000	-9.52346
63.50000	-9.66327
63.60000	-9.78415
63.70000	-9.88587
63.80000	-9.96823
63.90000	-10.03108
64.00000	-10.07432
64.10000	-10.09787
64.20000	-10.10172
64.30000	-10.08587
64.40000	-10.05038
64.50000	-9.99533
64.60000	-9.92084
64.70000	-9.82708
64.80000	-9.71423
64.90000	-9.58254
65.00000	-9.43226
65.10000	-9.26369
65.20000	-9.07715
65.30000	-8.87302
65.40000	-8.65169
65.50000	-8.41359
65.60000	-8.15918
65.70000	-7.88896
65.80000	-7.60345
65.90000	-7.30319
66.00000	-6.98878
66.10000	-6.66083
66.20000	-6.31995
66.30000	-5.96683
66.40000	-5.60212
66.50000	-5.22653
66.60000	-4.84079
66.70000	-4.44563
66.80000	-4.04179
66.90000	-3.63006
67.00000	-3.21121
67.10000	-2.78604
67.20000	-2.35535
67.30000	-1.91996
67.40000	-1.48071
67.50000	-1.03842
67.60000	-0.59395
67.70000	-0.14814
67.80000	0.29816
67.90000	0.74407
68.00000	1.18876
68.10000	1.63135
68.20000	2.07099
68.30000	2.50684
68.40000	2.93804
68.50000	3.36377
68.60000	3.78320
68.70000	4.19552
68.80000	4.59992
68.90000	4.99562
69.00000	5.38185
69.10000	5.75786
69.20000	6.12291
69.30000	6.47627
69.40000	6.81726
69.50000	7.14520
69.60000	7.45942
69.70000	7.75930
69.80000	8.04424
69.90000	8.31364
70.00000	8.56696
70.10000	8.80367
70.20000	9.02329
70.30000	9.22536
70.40000	9.40946
70.50000	9.57520
70.60000	9.72225
70.70000	9.85030
70.80000	9.95909
70.90000	10.04840
71.00000	10.11804
71.10000	10.16789
71.20000	10.19785
71.30000	10.20787
71.40000	10.19793
71.50000	10.16807
71.60000	10.11835
71.70000	10.04889
71.80000	9.95983
71.90000	9.85135
72.00000	9.72368
72.10000	9.57708
72.20000	9.41184
72.30000	9.22830
72.40000	9.02681
72.50000	8.80777
72.60000	8.57162
72.70000	8.31883
72.80000	8.04988
72.90000	7.76530
73.00000	7.46566
73.10000	7.15152
73.20000	6.82350
73.30000	6.48223
73.40000	6.12838
73.50000	5.76261
73.60000	5.38564
73.70000	4.99817
73.80000	4.60096
73.90000	4.19476
74.00000	3.78034
74.10000	3.35849
74.20000	2.93002
74.30000	2.49575
74.40000	2.05650
74.50000	1.61311
74.60000	1.16645
74.70000	0.71735
74.80000	0.26670
74.90000	-0.18464
75.00000	-0.63580
75.10000	-1.08590
75.20000	-1.53408
75.30000	-1.97946
75.40000	-2.42119
75.50000	-2.85842
75.60000	-3.29028
75.70000	-3.71595
75.80000	-4.13462
75.90000	-4.54545
76.00000	-4.94768
76.10000	-5.34050
76.20000	-5.72317
76.30000	-6.09494
76.40000	-6.45508
76.50000	-6.80288
76.60000	-7.13767
76.70000	-7.45878
76.80000	-7.76556
76.90000	-8.05741
77.00000	-8.33374
77.10000	-8.59398
77.20000	-8.83761
77.30000	-9.06412
77.40000	-9.27306
77.50000	-9.46398
77.60000	-9.63649
77.70000	-9.79023
77.80000	-9.92489
77.90000	-10.04017
78.00000	-10.13584
78.10000	-10.21170
78.20000	-10.26758
78.30000	-10.30336
78.40000	-10.31897
78.50000	-10.31437
78.60000	-10.28957
78.70000	-10.24461
78.80000	-10.17957
78.90000	-10.09460
79.00000	-9.98986
79.10000	-9.86555
79.20000	-9.72194
79.30000	-9.55932
79.40000	-9.37801
79.50000	-9.17839
79.60000	-8.96087
79.70000	-8.72588
79.80000	-8.47391
79.90000	-8.20547
80.00000	-7.92111
80.10000	-7.62139
80.20000	-7.30692
80.30000	-6.97832
80.40000	-6.63626
80.50000	-6.28139
80.60000	-5.91442
80.70000	-5.53606
80.80000	-5.14703
80.90000	-4.74809
81.00000	-4.34000
81.10000	-3.92353
81.20000	-3.49947
81.30000	-3.06862
81.40000	-2.63179
81.50000	-2.18981
81.60000	-1.74350
81.70000	-1.29372
81.80000	-0.84130
81.90000	-0.38710
82.00000	0.06802
82.10000	0.52320
82.20000	0.97756
82.30000	1.43026
82.40000	1.88042
82.50000	2.32719
82.60000	2.76970
82.70000	3.20712
82.80000	3.63858
82.90000	4.06327
83.00000	4.48036
83.10000	4.88903
83.20000	5.28850
83.30000	5.67797
83.40000	6.05668
83.50000	6.42388
83.60000	6.77884
83.70000	7.12085
83.80000	7.44923
83.90000	7.76330
84.00000	8.06243
84.10000	8.34602
84.20000	8.61348
84.30000	8.86426
84.40000	9.09785
84.50000	9.31377
84.60000	9.51158
84.70000	9.69086
84.80000	9.85124
84.90000	9.99240
85.00000	10.11405
85.10000	10.21593
85.20000	10.29784
85.30000	10.35961
85.40000	10.40111
85.50000	10.42226
85.60000	10.42302
85.70000	10.40337
85.80000	10.36337
85.90000	10.30308
86.00000	10.22263
86.10000	10.12219
86.20000	10.00194
86.30000	9.86214
86.40000	9.70306
86.50000	9.52502
86.60000	9.32839
86.70000	9.11355
86.80000	8.88094
86.90000	8.63102
87.00000	8.36429
87.10000	8.08129
87.20000	7.78258
87.30000	7.46875
87.40000	7.14042
87.50000	6.79823
87.60000	6.44285
87.70000	6.07498
87.80000	5.69534
87.90000	5.30464
88.00000	4.90365
88.10000	4.49314
88.20000	4.07389
88.30000	3.64671
88.40000	3.21241
88.50000	2.77181
88.60000	2.32576
88.70000	1.87512
88.80000	1.42073
88.90000	0.96346
89.00000	0.50418
89.10000	0.04378
89.20000	-0.41688
89.30000	-0.87691
89.40000	-1.33544
89.50000	-1.79159
89.60000	-2.24449
89.70000	-2.69326
89.80000	-3.13706
89.90000	-3.57502
90.00000	-4.00631
90.10000	-4.43008
90.20000	-4.84551
90.30000	-5.25181
90.40000	-5.64816
90.50000	-6.03379
90.60000	-6.40794
90.70000	-6.76986
90.80000	-7.11882
90.90000	-7.45414
91.00000	-7.77512
91.10000	-8.08112
91.20000	-8.37151
91.30000	-8.64570
91.40000	-8.90313
91.50000	-9.14328
91.60000	-9.36564
91.70000	-9.56976
91.80000	-9.75523
91.90000	-9.92167
92.00000	-10.06873
92.10000	-10.19612
92.20000	-10.30359
92.30000	-10.39090
92.40000	-10.45790
92.50000	-10.50444
92.60000	-10.53043
92.70000	-10.53582
92.80000	-10.52061
92.90000	-10.48482
93.00000	-10.42853
93.10000	-10.35185
93.20000	-10.25493
93.30000	-10.13797
93.40000	-10.00121
93.50000	-9.84492
93.60000	-9.66941
93.70000	-9.47504
93.80000	-9.26219
93.90000	-9.03129
94.00000	-8.78280
94.10000	-8.51722
94.20000	-8.23507
94.30000	-7.93691
94.40000	-7.62333
94.50000	-7.29495
94.60000	-6.95241
94.70000	-6.59638
94.80000	-6.22756
94.90000	-5.84665
95.00000	-5.45441
95.10000	-5.05158
95.20000	-4.63895
95.30000	-4.21731
95.40000	-3.78747
95.50000	-3.35026
95.60000	-2.90652
95.70000	-2.45709
95.80000	-2.00284
95.90000	-1.54465
96.00000	-1.08338
96.10000	-0.61992
96.20000	-0.15516
96.30000	0.31002
96.40000	0.77473
96.50000	1.23809
96.60000	1.69920
96.70000	2.15720
96.80000	2.61120
96.90000	3.06035
97.00000	3.50379
97.10000	3.94067
97.20000	4.37015
97.30000	4.79142
97.40000	5.20365
97.50000	5.60605
97.60000	5.99785
97.70000	6.37827
97.80000	6.74658
97.90000	7.10203
98.00000	7.44394
98.10000	7.77161
98.20000	8.08438
98.30000	8.38163
98.40000	8.66276
98.50000	8.92718
98.60000	9.17435
98.70000	9.40377
98.80000	9.61497
98.90000	9.80749
99.00000	9.98094
99.10000	10.13496
99.20000	10.26922
99.30000	10.38342
99.40000	10.47734
99.50000	10.55076
99.60000	10.60353
99.70000	10.63553
99.80000	10.64667
99.90000	10.63693
100.00000	10.60632
100.10000	10.55490
100.20000	10.48276
100.30000	10.39006
100.40000	10.27696
100.50000	10.14371
100.60000	9.99057
100.70000	9.81786
100.80000	9.62593
100.90000	9.41517
101.00000	9.18601
101.10000	8.93891
101.20000	8.67438
101.30000	8.39294
101.40000	8.09517
101.50000	7.78165
101.60000	7.45301
101.70000	7.10989
101.80000	6.75298
101.90000	6.38297
102.00000	6.00058
102.10000	5.60655
102.20000	5.20164
102.30000	4.78664
102.40000	4.36235
102.50000	3.92957
102.60000	3.48915
102.70000	3.04191
102.80000	2.58872
102.90000	2.13045
103.00000	1.66796
103.10000	1.20215
103.20000	0.73389
103.30000	0.26409
103.40000	-0.20637
103.50000	-0.67658
103.60000	-1.14565
103.70000	-1.61268
103.80000	-2.07679
103.90000	-2.53708
104.00000	-2.99268
104.10000	-3.44272
104.20000	-3.88632
104.30000	-4.32264
104.40000	-4.75084
104.50000	-5.17007
104.60000	-5.57953
104.70000	-5.97842
104.80000	-6.36595
104.90000	-6.74135
105.00000	-7.10388
105.10000	-7.45282
105.20000	-7.78747
105.30000	-8.10715
105.40000	-8.41121
105.50000	-8.69905
105.60000	-8.97006
105.70000	-9.22371
105.80000	-9.45946
105.90000	-9.67684
106.00000	-9.87539
106.10000	-10.05470
106.20000	-10.21440
106.30000	-10.35416
106.40000	-10.47368
106.50000	-10.57271
106.60000	-10.65105
106.70000	-10.70852
106.80000	-10.74500
106.90000	-10.76040
107.00000	-10.75470
107.10000	-10.72790
107.20000	-10.68004
107.30000	-10.61123
107.40000	-10.52159
107.50000	-10.41133
107.60000	-10.28066
107.70000	-10.12985
107.80000	-9.95921
107.90000	-9.76909
108.00000	-9.55989
108.10000	-9.33203
108.20000	-9.08599
108.30000	-8.82225
108.40000	-8.54136
108.50000	-8.24389
108.60000	-7.93043
108.70000	-7.60160
108.80000	-7.25806
108.90000	-6.90049
109.00000	-6.52958
109.10000	-6.14607
109.20000	-5.75070
109.30000	-5.34423
109.40000	-4.92745
109.50000	-4.50115
109.60000	-4.06616
109.70000	-3.62330
109.80000	-3.17341
109.90000	-2.71735
110.00000	-2.25599
110.10000	-1.79018
110.20000	-1.32082
110.30000	-0.84880
110.40000	-0.37499
110.50000	0.09970
110.60000	0.57439
110.70000	1.04817
110.80000	1.52014
110.90000	1.98942
111.00000	2.45511
111.10000	2.91633
111.20000	3.37219
111.30000	3.82182
111.40000	4.26435
111.50000	4.69892
111.60000	5.12469
111.70000	5.54081
111.80000	5.94648
111.90000	6.34089
112.00000	6.72325
112.10000	7.09279
112.20000	7.44878
112.30000	7.79049
112.40000	8.11722
112.50000	8.42832
112.60000	8.72314
112.70000	9.00109
112.80000	9.26159
112.90000	9.50410
113.00000	9.72813
113.10000	9.93321
113.20000	10.11892
